E	j	j C	j C	j  Ageo
V RHE	mA cm-2	mA mF-1	mA mF-1	mA cm-2
ML_072		I norm by capacitance @ 1.2 VRHE	I norm by capacitance @ 0.5 VRHE	I norm by Ageo
1.20037	0.31695	3.27423	6.23645	18.64386
1.19089	0.05398	0.55768	1.06222	3.17552
1.19947	-0.01631	-0.16845	-0.32085	-0.95917
1.20176	-0.02915	-0.30111	-0.57352	-1.71455
1.20108	-0.02169	-0.22403	-0.42671	-1.27564
1.20099	-0.01413	-0.14601	-0.27811	-0.83141
1.20133	-0.00744	-0.07681	-0.14631	-0.43738
1.20197	-0.00214	-0.02214	-0.04217	-0.12605
1.20277	0.00163	0.01682	0.03203	0.09577
1.20364	0.00396	0.04094	0.07799	0.23314
1.20452	0.00506	0.05229	0.09959	0.29772
1.20534	0.00528	0.05451	0.10383	0.31039
1.20608	0.00498	0.05146	0.09801	0.29301
1.20675	0.0043	0.04439	0.08455	0.25276
1.20736	0.00355	0.03672	0.06994	0.20909
1.20791	0.00277	0.02859	0.05446	0.16282
1.20842	0.00208	0.02148	0.0409	0.12228
1.2089	0.00153	0.01576	0.03001	0.08973
1.20937	0.00119	0.0123	0.02343	0.07005
1.20983	9.50612E-4	0.00982	0.0187	0.05592
1.21029	7.78549E-4	0.00804	0.01532	0.0458
1.21076	7.60075E-4	0.00785	0.01496	0.04471
1.21125	7.61142E-4	0.00786	0.01498	0.04477
1.21175	7.9022E-4	0.00816	0.01555	0.04648
1.21224	8.58945E-4	0.00887	0.0169	0.05053
1.21275	9.21168E-4	0.00952	0.01813	0.05419
1.21325	9.25803E-4	0.00956	0.01822	0.05446
1.21375	9.30805E-4	0.00962	0.01832	0.05475
1.21426	9.8856E-4	0.01021	0.01945	0.05815
1.21476	9.52146E-4	0.00984	0.01874	0.05601
1.21526	9.66985E-4	0.00999	0.01903	0.05688
1.21576	9.68452E-4	0.01	0.01906	0.05697
1.21626	9.61683E-4	0.00993	0.01892	0.05657
1.21676	9.32539E-4	0.00963	0.01835	0.05486
1.21726	9.45611E-4	0.00977	0.01861	0.05562
1.21776	9.30738E-4	0.00962	0.01831	0.05475
1.21826	9.03361E-4	0.00933	0.01778	0.05314
1.21875	9.01761E-4	0.00932	0.01774	0.05304
1.21926	9.24403E-4	0.00955	0.01819	0.05438
1.21976	8.85488E-4	0.00915	0.01742	0.05209
1.22025	9.20901E-4	0.00951	0.01812	0.05417
1.22075	9.13632E-4	0.00944	0.01798	0.05374
1.22125	8.86088E-4	0.00915	0.01744	0.05212
1.22176	8.87422E-4	0.00917	0.01746	0.0522
1.22225	9.0723E-4	0.00937	0.01785	0.05337
1.22275	8.93758E-4	0.00923	0.01759	0.05257
1.22325	8.99193E-4	0.00929	0.01769	0.05289
1.22375	9.3454E-4	0.00965	0.01839	0.05497
1.22425	9.29204E-4	0.0096	0.01828	0.05466
1.22475	9.30405E-4	0.00961	0.01831	0.05473
1.22524	9.4411E-4	0.00975	0.01858	0.05554
1.22575	9.28838E-4	0.0096	0.01828	0.05464
1.22624	9.172E-4	0.00948	0.01805	0.05395
1.22674	9.06629E-4	0.00937	0.01784	0.05333
1.22724	8.97293E-4	0.00927	0.01766	0.05278
1.22775	8.66281E-4	0.00895	0.01705	0.05096
1.22825	8.69049E-4	0.00898	0.0171	0.05112
1.22875	8.6218E-4	0.00891	0.01696	0.05072
1.22925	8.41905E-4	0.0087	0.01657	0.04952
1.22974	8.67915E-4	0.00897	0.01708	0.05105
1.23024	8.46674E-4	0.00875	0.01666	0.0498
1.23075	8.07826E-4	0.00835	0.0159	0.04752
1.23124	8.14395E-4	0.00841	0.01602	0.04791
1.23174	8.27533E-4	0.00855	0.01628	0.04868
1.23224	7.99056E-4	0.00825	0.01572	0.047
1.23274	7.90786E-4	0.00817	0.01556	0.04652
1.23323	8.16729E-4	0.00844	0.01607	0.04804
1.23373	7.62743E-4	0.00788	0.01501	0.04487
1.23423	8.1046E-4	0.00837	0.01595	0.04767
1.23473	8.07092E-4	0.00834	0.01588	0.04748
1.23523	7.92954E-4	0.00819	0.0156	0.04664
1.23573	7.91353E-4	0.00818	0.01557	0.04655
1.23624	7.92787E-4	0.00819	0.0156	0.04663
1.23674	7.9929E-4	0.00826	0.01573	0.04702
1.23725	7.68878E-4	0.00794	0.01513	0.04523
1.23775	8.25333E-4	0.00853	0.01624	0.04855
1.23826	7.9162E-4	0.00818	0.01558	0.04657
1.23876	7.75747E-4	0.00801	0.01526	0.04563
1.23927	7.66511E-4	0.00792	0.01508	0.04509
1.23977	7.50238E-4	0.00775	0.01476	0.04413
1.24027	7.4757E-4	0.00772	0.01471	0.04397
1.24076	7.82283E-4	0.00808	0.01539	0.04602
1.24126	8.22898E-4	0.0085	0.01619	0.04841
1.24177	8.21731E-4	0.00849	0.01617	0.04834
1.24226	7.73347E-4	0.00799	0.01522	0.04549
1.24276	7.60842E-4	0.00786	0.01497	0.04476
1.24326	8.09793E-4	0.00837	0.01593	0.04763
1.24376	7.91787E-4	0.00818	0.01558	0.04658
1.24426	8.17396E-4	0.00844	0.01608	0.04808
1.24476	7.98156E-4	0.00825	0.01571	0.04695
1.24525	8.07793E-4	0.00834	0.01589	0.04752
1.24575	8.4574E-4	0.00874	0.01664	0.04975
1.24625	8.08059E-4	0.00835	0.0159	0.04753
1.24675	8.05692E-4	0.00832	0.01585	0.04739
1.24725	8.28934E-4	0.00856	0.01631	0.04876
1.24775	8.44173E-4	0.00872	0.01661	0.04966
1.24824	8.14895E-4	0.00842	0.01603	0.04794
1.24874	8.45907E-4	0.00874	0.01664	0.04976
1.24924	8.57911E-4	0.00886	0.01688	0.05047
1.24973	8.6218E-4	0.00891	0.01696	0.05072
1.25024	8.68482E-4	0.00897	0.01709	0.05109
1.25074	8.84121E-4	0.00913	0.0174	0.05201
1.25124	8.85755E-4	0.00915	0.01743	0.0521
1.25174	8.68582E-4	0.00897	0.01709	0.05109
1.25224	8.68882E-4	0.00898	0.0171	0.05111
1.25274	8.46107E-4	0.00874	0.01665	0.04977
1.25324	8.20798E-4	0.00848	0.01615	0.04828
1.25374	7.7298E-4	0.00799	0.01521	0.04547
1.25424	7.91253E-4	0.00817	0.01557	0.04654
1.25474	7.69679E-4	0.00795	0.01514	0.04528
1.25524	7.48737E-4	0.00773	0.01473	0.04404
1.25574	7.51072E-4	0.00776	0.01478	0.04418
1.25624	7.76715E-4	0.00802	0.01528	0.04569
1.25673	7.56941E-4	0.00782	0.01489	0.04453
1.25724	7.64543E-4	0.0079	0.01504	0.04497
1.25773	7.79882E-4	0.00806	0.01535	0.04588
1.25823	7.6321E-4	0.00788	0.01502	0.04489
1.25873	7.92854E-4	0.00819	0.0156	0.04664
1.25922	7.94088E-4	0.0082	0.01563	0.04671
1.25972	7.8165E-4	0.00807	0.01538	0.04598
1.26022	8.24932E-4	0.00852	0.01623	0.04853
1.26072	8.17863E-4	0.00845	0.01609	0.04811
1.26122	7.87952E-4	0.00814	0.0155	0.04635
1.26172	7.88519E-4	0.00815	0.01552	0.04638
1.26222	8.10294E-4	0.00837	0.01594	0.04766
1.26273	7.50838E-4	0.00776	0.01477	0.04417
1.26323	7.36733E-4	0.00761	0.0145	0.04334
1.26373	7.77048E-4	0.00803	0.01529	0.04571
1.26423	7.89186E-4	0.00815	0.01553	0.04642
1.26473	7.48204E-4	0.00773	0.01472	0.04401
1.26523	7.4507E-4	0.0077	0.01466	0.04383
1.26573	7.33198E-4	0.00757	0.01443	0.04313
1.26623	7.04988E-4	0.00728	0.01387	0.04147
1.26673	7.45203E-4	0.0077	0.01466	0.04384
1.26723	7.37967E-4	0.00762	0.01452	0.04341
1.26773	7.22795E-4	0.00747	0.01422	0.04252
1.26822	7.50838E-4	0.00776	0.01477	0.04417
1.26872	7.53706E-4	0.00779	0.01483	0.04434
1.26922	7.50405E-4	0.00775	0.01477	0.04414
1.26972	7.58008E-4	0.00783	0.01492	0.04459
1.27022	7.62809E-4	0.00788	0.01501	0.04487
1.27072	7.80282E-4	0.00806	0.01535	0.0459
1.27121	7.80816E-4	0.00807	0.01536	0.04593
1.27171	8.16629E-4	0.00844	0.01607	0.04804
1.27221	7.90286E-4	0.00816	0.01555	0.04649
1.27271	7.78582E-4	0.00804	0.01532	0.0458
1.27321	7.85484E-4	0.00811	0.01546	0.0462
1.27371	7.77181E-4	0.00803	0.01529	0.04572
1.2742	7.85518E-4	0.00811	0.01546	0.04621
1.27471	7.87919E-4	0.00814	0.0155	0.04635
1.2752	8.19164E-4	0.00846	0.01612	0.04819
1.2757	7.97422E-4	0.00824	0.01569	0.04691
1.2762	8.21498E-4	0.00849	0.01616	0.04832
1.2767	8.28434E-4	0.00856	0.0163	0.04873
1.2772	8.15195E-4	0.00842	0.01604	0.04795
1.2777	8.04692E-4	0.00831	0.01583	0.04733
1.2782	8.45006E-4	0.00873	0.01663	0.04971
1.2787	8.51142E-4	0.00879	0.01675	0.05007
1.2792	8.27533E-4	0.00855	0.01628	0.04868
1.2797	8.23298E-4	0.00851	0.0162	0.04843
1.2802	8.17963E-4	0.00845	0.01609	0.04812
1.2807	8.03058E-4	0.0083	0.0158	0.04724
1.2812	8.28034E-4	0.00855	0.01629	0.04871
1.2817	8.20197E-4	0.00847	0.01614	0.04825
1.28219	7.95188E-4	0.00821	0.01565	0.04678
1.28269	8.13928E-4	0.00841	0.01602	0.04788
1.28319	8.02724E-4	0.00829	0.01579	0.04722
1.28369	7.75214E-4	0.00801	0.01525	0.0456
1.28419	7.89619E-4	0.00816	0.01554	0.04645
1.28469	7.57708E-4	0.00783	0.01491	0.04457
1.28519	7.59141E-4	0.00784	0.01494	0.04466
1.28569	7.99756E-4	0.00826	0.01574	0.04704
1.28618	8.20864E-4	0.00848	0.01615	0.04829
1.28669	8.06826E-4	0.00833	0.01588	0.04746
1.28719	7.73247E-4	0.00799	0.01521	0.04549
1.2877	8.27433E-4	0.00855	0.01628	0.04867
1.2882	7.98389E-4	0.00825	0.01571	0.04696
1.2887	7.65577E-4	0.00791	0.01506	0.04503
1.28921	8.06192E-4	0.00833	0.01586	0.04742
1.28972	7.79316E-4	0.00805	0.01533	0.04584
1.29022	7.60642E-4	0.00786	0.01497	0.04474
1.29073	7.71813E-4	0.00797	0.01519	0.0454
1.29123	8.02057E-4	0.00829	0.01578	0.04718
1.29173	7.63009E-4	0.00788	0.01501	0.04488
1.29223	7.45403E-4	0.0077	0.01467	0.04385
1.29272	7.44269E-4	0.00769	0.01464	0.04378
1.29322	7.86885E-4	0.00813	0.01548	0.04629
1.29372	7.82117E-4	0.00808	0.01539	0.04601
1.29422	7.78882E-4	0.00805	0.01533	0.04582
1.29472	7.95155E-4	0.00821	0.01565	0.04677
1.29522	8.03658E-4	0.0083	0.01581	0.04727
1.29571	8.02424E-4	0.00829	0.01579	0.0472
1.29621	8.01524E-4	0.00828	0.01577	0.04715
1.29671	8.03258E-4	0.0083	0.01581	0.04725
1.29721	8.24999E-4	0.00852	0.01623	0.04853
1.29771	7.85418E-4	0.00811	0.01545	0.0462
1.29821	7.56107E-4	0.00781	0.01488	0.04448
1.2987	7.68145E-4	0.00794	0.01511	0.04518
1.2992	7.54473E-4	0.00779	0.01485	0.04438
1.2997	7.34799E-4	0.00759	0.01446	0.04322
1.3002	7.51739E-4	0.00777	0.01479	0.04422
1.3007	7.77415E-4	0.00803	0.0153	0.04573
1.30119	7.90186E-4	0.00816	0.01555	0.04648
1.30169	8.34836E-4	0.00862	0.01643	0.04911
1.30219	8.43873E-4	0.00872	0.0166	0.04964
1.30269	8.53643E-4	0.00882	0.0168	0.05021
1.30319	8.32535E-4	0.0086	0.01638	0.04897
1.30369	8.41772E-4	0.0087	0.01656	0.04952
1.30419	8.32869E-4	0.0086	0.01639	0.04899
1.30469	8.42439E-4	0.0087	0.01658	0.04956
1.30519	8.33369E-4	0.00861	0.0164	0.04902
1.30569	8.59545E-4	0.00888	0.01691	0.05056
1.30619	8.03324E-4	0.0083	0.01581	0.04725
1.30669	8.47341E-4	0.00875	0.01667	0.04984
1.30719	8.37004E-4	0.00865	0.01647	0.04924
1.30769	8.40705E-4	0.00868	0.01654	0.04945
1.30818	8.25833E-4	0.00853	0.01625	0.04858
1.30869	7.81316E-4	0.00807	0.01537	0.04596
1.30918	7.63476E-4	0.00789	0.01502	0.04491
1.30968	7.91787E-4	0.00818	0.01558	0.04658
1.31018	7.82483E-4	0.00808	0.0154	0.04603
1.31068	7.80783E-4	0.00807	0.01536	0.04593
1.31117	7.79416E-4	0.00805	0.01534	0.04585
1.31168	7.65577E-4	0.00791	0.01506	0.04503
1.31218	7.51072E-4	0.00776	0.01478	0.04418
1.31268	7.78715E-4	0.00804	0.01532	0.04581
1.31318	8.13128E-4	0.0084	0.016	0.04783
1.31368	8.31201E-4	0.00859	0.01636	0.04889
1.31418	8.10194E-4	0.00837	0.01594	0.04766
1.31469	8.58845E-4	0.00887	0.0169	0.05052
1.31519	8.52476E-4	0.00881	0.01677	0.05015
1.31571	8.36337E-4	0.00864	0.01646	0.0492
1.31621	8.24899E-4	0.00852	0.01623	0.04852
1.31671	8.58545E-4	0.00887	0.01689	0.0505
1.31721	8.22965E-4	0.0085	0.01619	0.04841
1.31771	7.71813E-4	0.00797	0.01519	0.0454
1.31821	8.0119E-4	0.00828	0.01576	0.04713
1.31871	7.89719E-4	0.00816	0.01554	0.04645
1.31921	7.74214E-4	0.008	0.01523	0.04554
1.31971	8.04191E-4	0.00831	0.01582	0.04731
1.32021	8.13928E-4	0.00841	0.01602	0.04788
1.3207	8.04591E-4	0.00831	0.01583	0.04733
1.3212	8.1763E-4	0.00845	0.01609	0.0481
1.3217	8.38871E-4	0.00867	0.01651	0.04935
1.3222	8.41972E-4	0.0087	0.01657	0.04953
1.3227	8.37904E-4	0.00866	0.01649	0.04929
1.32319	8.36703E-4	0.00864	0.01646	0.04922
1.3237	8.4464E-4	0.00873	0.01662	0.04968
1.3242	8.30768E-4	0.00858	0.01635	0.04887
1.32469	8.43006E-4	0.00871	0.01659	0.04959
1.32519	8.66881E-4	0.00896	0.01706	0.05099
1.32569	8.4634E-4	0.00874	0.01665	0.04978
1.32619	8.52343E-4	0.00881	0.01677	0.05014
1.32669	8.83954E-4	0.00913	0.01739	0.052
1.32719	8.7365E-4	0.00903	0.01719	0.05139
1.32769	8.7285E-4	0.00902	0.01717	0.05134
1.32819	8.62113E-4	0.00891	0.01696	0.05071
1.3287	8.60579E-4	0.00889	0.01693	0.05062
1.32919	8.71483E-4	0.009	0.01715	0.05126
1.32969	8.47507E-4	0.00876	0.01668	0.04985
1.3302	8.12294E-4	0.00839	0.01598	0.04778
1.3307	8.12061E-4	0.00839	0.01598	0.04777
1.3312	8.38571E-4	0.00866	0.0165	0.04933
1.33169	8.29701E-4	0.00857	0.01633	0.04881
1.33219	8.40438E-4	0.00868	0.01654	0.04944
1.3327	8.45607E-4	0.00874	0.01664	0.04974
1.3332	8.02557E-4	0.00829	0.01579	0.04721
1.33369	7.83417E-4	0.00809	0.01542	0.04608
1.33419	8.04191E-4	0.00831	0.01582	0.04731
1.33469	8.24532E-4	0.00852	0.01622	0.0485
1.33519	8.03391E-4	0.0083	0.01581	0.04726
1.33568	8.28267E-4	0.00856	0.0163	0.04872
1.33618	8.41505E-4	0.00869	0.01656	0.0495
1.33668	8.52042E-4	0.0088	0.01677	0.05012
1.33718	8.57378E-4	0.00886	0.01687	0.05043
1.33768	8.22932E-4	0.0085	0.01619	0.04841
1.33818	7.9242E-4	0.00819	0.01559	0.04661
1.33868	7.99856E-4	0.00826	0.01574	0.04705
1.33919	7.88219E-4	0.00814	0.01551	0.04637
1.3397	7.95755E-4	0.00822	0.01566	0.04681
1.3402	7.70312E-4	0.00796	0.01516	0.04531
1.3407	8.13795E-4	0.00841	0.01601	0.04787
1.34121	8.12028E-4	0.00839	0.01598	0.04777
1.34172	8.12795E-4	0.0084	0.01599	0.04781
1.34222	8.17763E-4	0.00845	0.01609	0.0481
1.34272	7.61042E-4	0.00786	0.01497	0.04477
1.34322	7.7368E-4	0.00799	0.01522	0.04551
1.34372	8.03558E-4	0.0083	0.01581	0.04727
1.34422	7.66377E-4	0.00792	0.01508	0.04508
1.34471	7.75281E-4	0.00801	0.01525	0.0456
1.34521	8.1913E-4	0.00846	0.01612	0.04818
1.34571	8.0816E-4	0.00835	0.0159	0.04754
1.34621	7.86518E-4	0.00813	0.01548	0.04627
1.34671	8.03291E-4	0.0083	0.01581	0.04725
1.3472	8.22365E-4	0.0085	0.01618	0.04837
1.3477	8.12294E-4	0.00839	0.01598	0.04778
1.3482	7.9939E-4	0.00826	0.01573	0.04702
1.3487	8.13528E-4	0.0084	0.01601	0.04785
1.3492	8.13328E-4	0.0084	0.016	0.04784
1.34969	8.07126E-4	0.00834	0.01588	0.04748
1.35019	8.43573E-4	0.00871	0.0166	0.04962
1.35069	8.50509E-4	0.00879	0.01674	0.05003
1.35119	8.34936E-4	0.00863	0.01643	0.04911
1.35169	8.47007E-4	0.00875	0.01667	0.04982
1.35219	8.38437E-4	0.00866	0.0165	0.04932
1.35269	8.34102E-4	0.00862	0.01641	0.04906
1.35318	8.60246E-4	0.00889	0.01693	0.0506
1.35369	8.69782E-4	0.00899	0.01711	0.05116
1.35419	8.6468E-4	0.00893	0.01701	0.05086
1.35469	8.62446E-4	0.00891	0.01697	0.05073
1.35519	8.80086E-4	0.00909	0.01732	0.05177
1.35568	8.76885E-4	0.00906	0.01725	0.05158
1.35619	8.56911E-4	0.00885	0.01686	0.05041
1.35669	8.32068E-4	0.0086	0.01637	0.04895
1.35719	8.39971E-4	0.00868	0.01653	0.04941
1.35769	8.28467E-4	0.00856	0.0163	0.04873
1.35818	8.47941E-4	0.00876	0.01668	0.04988
1.35869	8.272E-4	0.00855	0.01628	0.04866
1.35919	8.38171E-4	0.00866	0.01649	0.0493
1.35969	8.18697E-4	0.00846	0.01611	0.04816
1.36018	8.22598E-4	0.0085	0.01619	0.04839
1.36068	8.10761E-4	0.00838	0.01595	0.04769
1.36118	8.14128E-4	0.00841	0.01602	0.04789
1.36168	7.87952E-4	0.00814	0.0155	0.04635
1.36218	7.79349E-4	0.00805	0.01534	0.04584
1.36268	7.87318E-4	0.00813	0.01549	0.04631
1.36318	7.98923E-4	0.00825	0.01572	0.047
1.36367	7.94454E-4	0.00821	0.01563	0.04673
1.36418	8.24732E-4	0.00852	0.01623	0.04851
1.36467	8.11394E-4	0.00838	0.01597	0.04773
1.36517	8.18197E-4	0.00845	0.0161	0.04813
1.36568	8.58612E-4	0.00887	0.01689	0.05051
1.36617	8.35103E-4	0.00863	0.01643	0.04912
1.36668	8.80553E-4	0.0091	0.01733	0.0518
1.36718	8.42572E-4	0.0087	0.01658	0.04956
1.36768	8.23732E-4	0.00851	0.01621	0.04845
1.36818	8.71283E-4	0.009	0.01714	0.05125
1.36868	7.96122E-4	0.00822	0.01567	0.04683
1.36918	8.1036E-4	0.00837	0.01595	0.04767
1.36968	8.10961E-4	0.00838	0.01596	0.0477
1.37017	8.0886E-4	0.00836	0.01592	0.04758
1.37067	8.19364E-4	0.00846	0.01612	0.0482
1.37117	8.06692E-4	0.00833	0.01587	0.04745
1.37167	7.82917E-4	0.00809	0.01541	0.04605
1.37216	8.10294E-4	0.00837	0.01594	0.04766
1.37266	8.48341E-4	0.00876	0.01669	0.0499
1.37317	8.67748E-4	0.00896	0.01707	0.05104
1.37366	8.57178E-4	0.00886	0.01687	0.05042
1.37416	8.52776E-4	0.00881	0.01678	0.05016
1.37466	8.61379E-4	0.0089	0.01695	0.05067
1.37516	8.8132E-4	0.0091	0.01734	0.05184
1.37566	8.33836E-4	0.00861	0.01641	0.04905
1.37616	8.34469E-4	0.00862	0.01642	0.04909
1.37666	8.53343E-4	0.00882	0.01679	0.0502
1.37716	8.7275E-4	0.00902	0.01717	0.05134
1.37766	8.75918E-4	0.00905	0.01724	0.05152
1.37816	8.47941E-4	0.00876	0.01668	0.04988
1.37865	8.61579E-4	0.0089	0.01695	0.05068
1.37915	8.77685E-4	0.00907	0.01727	0.05163
1.37965	8.34002E-4	0.00862	0.01641	0.04906
1.38015	8.51209E-4	0.00879	0.01675	0.05007
1.38065	9.07263E-4	0.00937	0.01785	0.05337
1.38116	8.26199E-4	0.00854	0.01626	0.0486
1.38166	7.99323E-4	0.00826	0.01573	0.04702
1.38215	8.07393E-4	0.00834	0.01589	0.04749
1.38266	8.10427E-4	0.00837	0.01595	0.04767
1.38315	8.04025E-4	0.00831	0.01582	0.0473
1.38365	8.01724E-4	0.00828	0.01578	0.04716
1.38415	8.1773E-4	0.00845	0.01609	0.0481
1.38466	8.25299E-4	0.00853	0.01624	0.04855
1.38515	7.71146E-4	0.00797	0.01517	0.04536
1.38565	7.84884E-4	0.00811	0.01544	0.04617
1.38614	8.11194E-4	0.00838	0.01596	0.04772
1.38665	7.99123E-4	0.00826	0.01572	0.04701
1.38714	7.85885E-4	0.00812	0.01546	0.04623
1.38764	7.95722E-4	0.00822	0.01566	0.04681
1.38815	7.8295E-4	0.00809	0.01541	0.04606
1.38864	7.83817E-4	0.0081	0.01542	0.04611
1.38914	7.7458E-4	0.008	0.01524	0.04556
1.38964	8.1066E-4	0.00837	0.01595	0.04769
1.39015	7.95822E-4	0.00822	0.01566	0.04681
1.39065	8.17496E-4	0.00845	0.01609	0.04809
1.39116	8.65381E-4	0.00894	0.01703	0.0509
1.39167	8.32535E-4	0.0086	0.01638	0.04897
1.39218	8.05425E-4	0.00832	0.01585	0.04738
1.39267	8.15562E-4	0.00843	0.01605	0.04797
1.39317	8.33536E-4	0.00861	0.0164	0.04903
1.39368	8.03691E-4	0.0083	0.01581	0.04728
1.39418	8.43106E-4	0.00871	0.01659	0.04959
1.39468	8.25566E-4	0.00853	0.01624	0.04856
1.39518	8.12128E-4	0.00839	0.01598	0.04777
1.39568	8.12895E-4	0.0084	0.016	0.04782
1.39617	8.23465E-4	0.00851	0.0162	0.04844
1.39668	8.03525E-4	0.0083	0.01581	0.04727
1.39717	8.30701E-4	0.00858	0.01635	0.04886
1.39767	8.45907E-4	0.00874	0.01664	0.04976
1.39816	8.38971E-4	0.00867	0.01651	0.04935
1.39867	8.12828E-4	0.0084	0.01599	0.04781
1.39916	8.28234E-4	0.00856	0.0163	0.04872
1.39966	8.7335E-4	0.00902	0.01718	0.05137
1.40016	8.39871E-4	0.00868	0.01653	0.0494
1.40066	8.49108E-4	0.00877	0.01671	0.04995
1.40116	8.4454E-4	0.00872	0.01662	0.04968
1.40166	8.75351E-4	0.00904	0.01722	0.05149
1.40215	9.07163E-4	0.00937	0.01785	0.05336
1.40266	9.21835E-4	0.00952	0.01814	0.05423
1.40316	8.74851E-4	0.00904	0.01721	0.05146
1.40365	8.7135E-4	0.009	0.01715	0.05126
1.40415	8.82087E-4	0.00911	0.01736	0.05189
1.40465	9.25636E-4	0.00956	0.01821	0.05445
1.40515	8.76918E-4	0.00906	0.01725	0.05158
1.40565	9.177E-4	0.00948	0.01806	0.05398
1.40615	9.41909E-4	0.00973	0.01853	0.05541
1.40665	9.47811E-4	0.00979	0.01865	0.05575
1.40715	9.17033E-4	0.00947	0.01804	0.05394
1.40765	9.11965E-4	0.00942	0.01794	0.05364
1.40815	9.30205E-4	0.00961	0.0183	0.05472
1.40865	9.7162E-4	0.01004	0.01912	0.05715
1.40915	9.30772E-4	0.00962	0.01831	0.05475
1.40965	9.31505E-4	0.00962	0.01833	0.05479
1.41014	9.25103E-4	0.00956	0.0182	0.05442
1.41064	9.22569E-4	0.00953	0.01815	0.05427
1.41114	9.28771E-4	0.00959	0.01828	0.05463
1.41164	9.40008E-4	0.00971	0.0185	0.05529
1.41214	9.01294E-4	0.00931	0.01773	0.05302
1.41264	9.34173E-4	0.00965	0.01838	0.05495
1.41314	9.43476E-4	0.00975	0.01856	0.0555
1.41364	9.43976E-4	0.00975	0.01857	0.05553
1.41414	9.51479E-4	0.00983	0.01872	0.05597
1.41464	9.6105E-4	0.00993	0.01891	0.05653
1.41513	9.40108E-4	0.00971	0.0185	0.0553
1.41564	9.28537E-4	0.00959	0.01827	0.05462
1.41615	9.67319E-4	0.00999	0.01903	0.0569
1.41666	9.78156E-4	0.0101	0.01925	0.05754
1.41717	9.31105E-4	0.00962	0.01832	0.05477
1.41768	9.4551E-4	0.00977	0.0186	0.05562
1.41818	9.81624E-4	0.01014	0.01932	0.05774
1.41868	9.84358E-4	0.01017	0.01937	0.0579
1.41918	9.52046E-4	0.00984	0.01873	0.056
1.41968	9.67685E-4	0.01	0.01904	0.05692
1.42018	9.61183E-4	0.00993	0.01891	0.05654
1.42068	9.74254E-4	0.01006	0.01917	0.05731
1.42118	9.73988E-4	0.01006	0.01916	0.05729
1.42168	9.71353E-4	0.01003	0.01911	0.05714
1.42218	9.50012E-4	0.00981	0.01869	0.05588
1.42267	9.95629E-4	0.01029	0.01959	0.05857
1.42317	0.00102	0.01054	0.02007	0.06
1.42367	9.98097E-4	0.01031	0.01964	0.05871
1.42417	0.00102	0.01053	0.02006	0.05996
1.42467	0.001	0.01034	0.0197	0.0589
1.42516	9.96163E-4	0.01029	0.0196	0.0586
1.42566	0.00102	0.01053	0.02006	0.05997
1.42616	0.00104	0.01074	0.02046	0.06117
1.42666	0.00104	0.01073	0.02044	0.0611
1.42716	0.00102	0.01056	0.02012	0.06016
1.42766	0.00104	0.01074	0.02046	0.06116
1.42815	0.00103	0.01065	0.02029	0.06066
1.42866	0.00102	0.01052	0.02003	0.05989
1.42915	0.00104	0.01073	0.02044	0.06111
1.42965	0.00103	0.01069	0.02035	0.06085
1.43015	0.00106	0.01099	0.02094	0.0626
1.43064	0.00108	0.01119	0.02132	0.06372
1.43114	0.00113	0.01163	0.02215	0.06622
1.43165	0.00111	0.01148	0.02187	0.06537
1.43215	0.0011	0.01141	0.02173	0.06497
1.43265	0.00111	0.01143	0.02177	0.0651
1.43316	0.00107	0.0111	0.02114	0.06319
1.43366	0.00105	0.01088	0.02072	0.06195
1.43416	0.00107	0.01108	0.0211	0.06307
1.43465	0.00109	0.01122	0.02138	0.06391
1.43515	0.00107	0.0111	0.02115	0.06322
1.43565	0.00107	0.0111	0.02114	0.0632
1.43614	0.00109	0.01124	0.02142	0.06403
1.43664	0.00106	0.01093	0.02082	0.06225
1.43715	0.0011	0.01134	0.02161	0.06459
1.43764	0.00108	0.01115	0.02123	0.06347
1.43814	0.00104	0.01075	0.02048	0.06122
1.43864	0.00109	0.01129	0.02151	0.0643
1.43914	0.00108	0.01114	0.02122	0.06344
1.43964	0.00108	0.01118	0.0213	0.06368
1.44014	0.00108	0.01118	0.0213	0.06368
1.44064	0.0011	0.01134	0.0216	0.06459
1.44114	0.00112	0.01154	0.02197	0.06569
1.44165	0.00114	0.01175	0.02239	0.06693
1.44215	0.00114	0.01182	0.02251	0.06729
1.44266	0.00114	0.01173	0.02235	0.06681
1.44318	0.00118	0.01217	0.02318	0.0693
1.44368	0.00118	0.0122	0.02325	0.06949
1.44418	0.00117	0.01211	0.02306	0.06895
1.44469	0.00119	0.01229	0.02341	0.06998
1.44518	0.00122	0.01264	0.02408	0.07199
1.44568	0.00121	0.01254	0.02389	0.07142
1.44618	0.00122	0.01264	0.02408	0.07199
1.44668	0.00122	0.01264	0.02408	0.07199
1.44717	0.00127	0.01314	0.02502	0.0748
1.44766	0.00127	0.01314	0.02503	0.07484
1.44816	0.00129	0.01329	0.02531	0.07565
1.44866	0.0013	0.01345	0.02561	0.07657
1.44917	0.00133	0.0137	0.0261	0.07802
1.44967	0.00132	0.01363	0.02597	0.07763
1.45017	0.00134	0.01384	0.02637	0.07883
1.45066	0.00134	0.0138	0.02629	0.0786
1.45116	0.00137	0.01416	0.02698	0.08065
1.45166	0.00136	0.014	0.02667	0.07974
1.45216	0.00137	0.0141	0.02686	0.08031
1.45266	0.00139	0.0144	0.02743	0.082
1.45316	0.00142	0.01468	0.02795	0.08357
1.45366	0.00143	0.01477	0.02814	0.08412
1.45416	0.00146	0.01509	0.02873	0.0859
1.45465	0.00147	0.01521	0.02898	0.08663
1.45515	0.00151	0.01562	0.02975	0.08893
1.45565	0.00153	0.01584	0.03018	0.09022
1.45615	0.00157	0.01624	0.03094	0.09249
1.45665	0.00157	0.01626	0.03096	0.09257
1.45715	0.00157	0.01621	0.03087	0.09229
1.45764	0.00161	0.01666	0.03173	0.09485
1.45815	0.00161	0.01666	0.03173	0.09486
1.45865	0.00162	0.01676	0.03193	0.09544
1.45915	0.00162	0.01674	0.03189	0.09534
1.45965	0.00164	0.01694	0.03226	0.09644
1.46014	0.00165	0.01702	0.03243	0.09694
1.46065	0.00165	0.01706	0.03249	0.09712
1.46115	0.0017	0.01755	0.03342	0.09992
1.46165	0.00168	0.01735	0.03304	0.09877
1.46215	0.00167	0.01722	0.03281	0.09807
1.46265	0.0017	0.01761	0.03355	0.10029
1.46314	0.00173	0.01791	0.03412	0.10199
1.46364	0.00174	0.018	0.03429	0.10252
1.46414	0.00178	0.01836	0.03496	0.10452
1.46464	0.00181	0.01872	0.03566	0.10662
1.46514	0.00183	0.01892	0.03604	0.10773
1.46564	0.00184	0.01902	0.03623	0.1083
1.46614	0.00188	0.0194	0.03696	0.11049
1.46663	0.00191	0.01968	0.03749	0.11208
1.46713	0.00196	0.02025	0.03857	0.11529
1.46763	0.00198	0.02041	0.03887	0.1162
1.46814	0.00199	0.02059	0.03922	0.11725
1.46864	0.00206	0.02127	0.04052	0.12114
1.46914	0.00213	0.02195	0.04182	0.12501
1.46965	0.00214	0.0221	0.04209	0.12583
1.47015	0.00216	0.02233	0.04253	0.12716
1.47064	0.00218	0.02257	0.04298	0.12849
1.47114	0.00219	0.02266	0.04316	0.12904
1.47164	0.00228	0.02357	0.04489	0.13421
1.47214	0.00232	0.02394	0.0456	0.13633
1.47263	0.00235	0.02427	0.04623	0.13821
1.47313	0.00237	0.02448	0.04663	0.13939
1.47363	0.00239	0.02466	0.04698	0.14044
1.47413	0.00247	0.02548	0.04853	0.14508
1.47463	0.00251	0.02594	0.04942	0.14773
1.47513	0.00256	0.0264	0.05029	0.15033
1.47563	0.00262	0.02709	0.05161	0.15428
1.47612	0.00263	0.02715	0.05172	0.15461
1.47662	0.00268	0.02774	0.05283	0.15794
1.47712	0.00276	0.0285	0.05428	0.16227
1.47762	0.0028	0.02893	0.0551	0.16472
1.47812	0.00284	0.02933	0.05586	0.167
1.47862	0.00292	0.03013	0.05739	0.17156
1.47911	0.00297	0.03067	0.05842	0.17466
1.47962	0.003	0.03096	0.05897	0.17629
1.48011	0.00308	0.0318	0.06056	0.18106
1.48061	0.00317	0.0327	0.06229	0.18622
1.48111	0.00323	0.03333	0.06349	0.18981
1.48161	0.00332	0.03432	0.06538	0.19545
1.4821	0.00341	0.03524	0.06711	0.20064
1.4826	0.0035	0.03619	0.06893	0.20606
1.48311	0.00351	0.0363	0.06913	0.20667
1.48361	0.00357	0.03683	0.07016	0.20973
1.48411	0.00361	0.03729	0.07103	0.21233
1.48461	0.00369	0.03809	0.07255	0.21688
1.48511	0.00373	0.03851	0.07335	0.21928
1.4856	0.00381	0.03934	0.07494	0.22403
1.4861	0.00387	0.03997	0.07613	0.22758
1.4866	0.00401	0.04139	0.07883	0.23567
1.4871	0.00406	0.04192	0.07984	0.23869
1.4876	0.00416	0.04299	0.08187	0.24476
1.4881	0.00423	0.04368	0.08319	0.24871
1.4886	0.0043	0.04437	0.08452	0.25268
1.4891	0.00442	0.04561	0.08688	0.25972
1.4896	0.0045	0.04653	0.08862	0.26494
1.49009	0.0046	0.04754	0.09054	0.27068
1.49059	0.00471	0.04865	0.09266	0.277
1.49109	0.00481	0.0497	0.09466	0.283
1.49159	0.00493	0.05091	0.09696	0.28987
1.49209	0.00508	0.05251	0.10001	0.29898
1.4926	0.00523	0.05402	0.10288	0.30757
1.49311	0.00533	0.05508	0.1049	0.31361
1.49363	0.00544	0.05616	0.10697	0.31977
1.49413	0.00558	0.05767	0.10984	0.32838
1.49464	0.0057	0.05891	0.11221	0.33546
1.49514	0.00582	0.06013	0.11454	0.34241
1.49563	0.00602	0.06214	0.11836	0.35385
1.49613	0.00615	0.06358	0.12111	0.36204
1.49663	0.00632	0.0653	0.12438	0.37183
1.49713	0.00651	0.06724	0.12807	0.38286
1.49763	0.0067	0.06919	0.13179	0.39399
1.49813	0.00685	0.07081	0.13488	0.40322
1.49863	0.007	0.0723	0.1377	0.41166
1.49913	0.00719	0.07426	0.14145	0.42285
1.49962	0.00738	0.07621	0.14516	0.43394
1.50012	0.00757	0.07821	0.14897	0.44534
1.50062	0.00777	0.08031	0.15296	0.45728
1.50112	0.00797	0.08231	0.15678	0.46868
1.50162	0.0082	0.08472	0.16136	0.48238
1.50211	0.00841	0.08684	0.16541	0.49449
1.50261	0.00865	0.08933	0.17015	0.50865
1.50311	0.00886	0.09152	0.17432	0.52113
1.5036	0.00914	0.09441	0.17982	0.53758
1.50411	0.00936	0.09669	0.18417	0.55058
1.5046	0.00958	0.09899	0.18855	0.56368
1.50511	0.00984	0.10165	0.19362	0.57883
1.5056	0.01014	0.10475	0.19951	0.59644
1.5061	0.01047	0.10813	0.20596	0.61572
1.50659	0.01078	0.11139	0.21217	0.6343
1.50709	0.01107	0.11431	0.21773	0.65089
1.50759	0.01139	0.11764	0.22406	0.66984
1.50809	0.01171	0.12098	0.23043	0.68886
1.5086	0.01202	0.12421	0.23659	0.70728
1.5091	0.01231	0.12716	0.24221	0.72407
1.5096	0.01268	0.13097	0.24947	0.74579
1.5101	0.01304	0.13467	0.2565	0.76681
1.5106	0.01341	0.13849	0.26378	0.78858
1.51109	0.01377	0.14222	0.27089	0.80981
1.5116	0.01417	0.14635	0.27876	0.83335
1.51209	0.01454	0.15018	0.28604	0.85512
1.51259	0.01497	0.15465	0.29457	0.88061
1.51309	0.01539	0.15898	0.30282	0.90527
1.51358	0.01585	0.16378	0.31196	0.93259
1.51409	0.01629	0.16828	0.32053	0.95821
1.51458	0.01672	0.17273	0.329	0.98353
1.51508	0.01725	0.17823	0.33947	1.01485
1.51558	0.01778	0.18371	0.34991	1.04607
1.51608	0.0183	0.18901	0.36002	1.07627
1.51658	0.01882	0.19445	0.37036	1.10719
1.51709	0.01932	0.19958	0.38014	1.13642
1.51759	0.01992	0.20579	0.39196	1.17177
1.5181	0.02052	0.21196	0.40371	1.2069
1.51859	0.02114	0.21844	0.41606	1.24381
1.51909	0.02172	0.22435	0.42732	1.27748
1.51959	0.02233	0.23068	0.43939	1.31355
1.52008	0.023	0.23765	0.45265	1.3532
1.52058	0.02372	0.24509	0.46683	1.39558
1.52108	0.0244	0.25208	0.48013	1.43535
1.52158	0.02513	0.25957	0.4944	1.47802
1.52207	0.02588	0.26732	0.50917	1.52217
1.52257	0.0266	0.27484	0.52348	1.56495
1.52307	0.02743	0.28341	0.53981	1.61377
1.52356	0.02823	0.29165	0.5555	1.66066
1.52406	0.02908	0.30044	0.57225	1.71074
1.52456	0.0299	0.30893	0.58842	1.75909
1.52506	0.03079	0.31809	0.60587	1.81126
1.52556	0.0317	0.32749	0.62376	1.86474
1.52605	0.03262	0.33701	0.6419	1.91895
1.52655	0.03356	0.34675	0.66045	1.97441
1.52705	0.03459	0.35734	0.68062	2.03472
1.52754	0.03557	0.36748	0.69995	2.09249
1.52804	0.03667	0.37878	0.72147	2.15683
1.52853	0.03775	0.39	0.74283	2.2207
1.52904	0.0389	0.40182	0.76535	2.288
1.52954	0.03995	0.41274	0.78615	2.35018
1.53004	0.04107	0.42423	0.80803	2.41559
1.53054	0.0423	0.43701	0.83237	2.48838
1.53103	0.0435	0.44939	0.85595	2.55886
1.53153	0.04481	0.46294	0.88176	2.63603
1.53203	0.04602	0.47542	0.90553	2.70709
1.53253	0.04733	0.48896	0.93133	2.7842
1.53303	0.04877	0.50378	0.95954	2.86856
1.53352	0.05019	0.51851	0.98761	2.95245
1.53402	0.05167	0.53374	1.01662	3.03918
1.53451	0.05307	0.54829	1.04433	3.12202
1.53501	0.05467	0.56472	1.07563	3.21561
1.53551	0.0562	0.58057	1.10582	3.30586
1.536	0.05778	0.59687	1.13686	3.39863
1.53651	0.05945	0.61412	1.16971	3.49686
1.53702	0.06105	0.6307	1.2013	3.59128
1.53755	0.06281	0.64886	1.23588	3.69466
1.53805	0.06459	0.6673	1.27101	3.7997
1.53855	0.06637	0.68567	1.30599	3.90426
1.53904	0.06826	0.70513	1.34307	4.01512
1.53954	0.07019	0.72514	1.38117	4.12902
1.54004	0.07216	0.74545	1.41986	4.24468
1.54054	0.07418	0.76635	1.45968	4.36371
1.54103	0.07626	0.78782	1.50057	4.48595
1.54152	0.07833	0.80921	1.54131	4.60776
1.54202	0.0805	0.8316	1.58395	4.73523
1.54252	0.08267	0.85406	1.62673	4.86312
1.54301	0.08493	0.87742	1.67123	4.99615
1.54351	0.08716	0.90046	1.71511	5.12733
1.544	0.08951	0.92473	1.76134	5.26552
1.5445	0.09187	0.94909	1.80773	5.40421
1.54499	0.09437	0.97492	1.85693	5.55129
1.5455	0.09682	1.00021	1.9051	5.69531
1.54599	0.09944	1.02727	1.95665	5.8494
1.54648	0.10205	1.05424	2.00802	6.00298
1.54698	0.10472	1.08187	2.06064	6.16027
1.54747	0.10745	1.11001	2.11425	6.32055
1.54797	0.11027	1.13919	2.16983	6.4867
1.54847	0.11304	1.16782	2.22435	6.6497
1.54896	0.11595	1.19783	2.28151	6.82058
1.54946	0.11881	1.22742	2.33787	6.98908
1.54996	0.12191	1.25942	2.39882	7.17127
1.55046	0.12503	1.29158	2.46008	7.35441
1.55094	0.12812	1.3236	2.52106	7.53672
1.55144	0.13146	1.35804	2.58667	7.73284
1.55193	0.13484	1.39297	2.65319	7.93171
1.55243	0.13818	1.42746	2.71889	8.12811
1.55293	0.14159	1.46267	2.78595	8.32861
1.55343	0.1451	1.49896	2.85508	8.53526
1.55393	0.14857	1.53481	2.92336	8.73937
1.55443	0.15226	1.57294	2.99598	8.95648
1.55492	0.15596	1.61112	3.06871	9.1739
1.55542	0.15969	1.64972	3.14222	9.39367
1.5559	0.16357	1.68977	3.21852	9.62178
1.55641	0.16743	1.72965	3.29448	9.84883
1.55691	0.1714	1.77061	3.3725	10.08208
1.55739	0.17554	1.81339	3.45397	10.32565
1.55789	0.17965	1.85588	3.53491	10.56761
1.55838	0.18386	1.89937	3.61774	10.81524
1.55887	0.18818	1.94405	3.70285	11.06965
1.55937	0.19254	1.98907	3.7886	11.32601
1.55986	0.19703	2.03539	3.87682	11.58976
1.56036	0.20155	2.08215	3.96589	11.85603
1.56085	0.20612	2.12931	4.0557	12.12452
1.56134	0.21081	2.17781	4.14809	12.40071
1.56184	0.21553	2.2265	4.24084	12.67798
1.56234	0.22038	2.27662	4.3363	12.96336
1.56283	0.22534	2.32785	4.43387	13.25506
1.56332	0.23034	2.37955	4.53233	13.54941
1.5638	0.2356	2.43384	4.63575	13.85857
1.5643	0.24081	2.4877	4.73834	14.16527
1.56481	0.2461	2.54236	4.84245	14.4765
1.56534	0.2515	2.59815	4.94871	14.79417
1.56585	0.25696	2.6545	5.05604	15.11503
1.56634	0.26253	2.71213	5.16581	15.44319
1.56684	0.26826	2.77129	5.27849	15.78005
1.56734	0.27405	2.83113	5.39247	16.12077
1.56783	0.27984	2.89089	5.5063	16.46107
1.56832	0.28589	2.9534	5.62535	16.81699
1.56882	0.29183	3.01475	5.74222	17.16635
1.56932	0.29793	3.0778	5.8623	17.52533
1.56982	0.30412	3.14174	5.98409	17.88943
1.57031	0.31047	3.20737	6.10909	18.26313
1.57079	0.31703	3.27506	6.23803	18.6486
1.57128	0.32366	3.34364	6.36864	19.03905
1.57179	0.33016	3.41077	6.49651	19.42131
1.57229	0.33695	3.48087	6.63003	19.82047
1.57277	0.34424	3.55622	6.77355	20.24952
1.57328	0.35163	3.63253	6.9189	20.68406
1.57377	0.35884	3.70699	7.06073	21.10806
1.57427	0.36594	3.78035	7.20045	21.52574
1.57477	0.37334	3.85684	7.34615	21.96132
1.57531	0.38091	3.93499	7.495	22.4063
1.57582	0.38837	4.01212	7.64191	22.84549
1.57631	0.39607	4.09162	7.79334	23.29817
1.57681	0.40388	4.17231	7.94702	23.75762