E	j	j C	j C	j  Ageo
V RHE	mA cm-2	mA mF-1	mA mF-1	mA cm-2
ML_047		I norm by capacitance @ 1.2 VRHE	I norm by capacitance @ 0.5 VRHE	I norm by Ageo
1.20664	0.11662	1.80241	2.6279	6.13767
1.22176	0.03004	0.46434	0.67701	1.58121
1.19321	-0.03891	-0.60133	-0.87673	-2.04768
1.203	0.03229	0.49901	0.72755	1.69925
1.2031	-0.01252	-0.19347	-0.28208	-0.65882
1.20138	0.00767	0.11854	0.17283	0.40365
1.20404	8.40972E-4	0.013	0.01895	0.04426
1.20313	0.00106	0.01631	0.02378	0.05554
1.20434	0.0024	0.03713	0.05413	0.12643
1.20457	7.51772E-4	0.01162	0.01694	0.03957
1.20512	0.00164	0.02542	0.03707	0.08658
1.20564	9.57682E-4	0.0148	0.02158	0.0504
1.2061	0.00115	0.01774	0.02587	0.06042
1.20662	0.00108	0.01663	0.02424	0.05662
1.20711	9.50979E-4	0.0147	0.02143	0.05005
1.20761	0.00103	0.01586	0.02313	0.05402
1.20811	9.12932E-4	0.01411	0.02057	0.04805
1.2086	8.50975E-4	0.01315	0.01918	0.04479
1.20912	8.39738E-4	0.01298	0.01892	0.0442
1.2096	7.52172E-4	0.01163	0.01695	0.03959
1.2101	7.35599E-4	0.01137	0.01658	0.03872
1.21061	7.32832E-4	0.01133	0.01651	0.03857
1.2111	7.49338E-4	0.01158	0.01689	0.03944
1.21162	7.27763E-4	0.01125	0.0164	0.0383
1.21214	7.00753E-4	0.01083	0.01579	0.03688
1.21265	6.97385E-4	0.01078	0.01572	0.0367
1.21315	6.77378E-4	0.01047	0.01526	0.03565
1.21365	6.15321E-4	0.00951	0.01387	0.03239
1.21415	6.12687E-4	0.00947	0.01381	0.03225
1.21464	5.91779E-4	0.00915	0.01334	0.03115
1.21516	5.73573E-4	0.00887	0.01293	0.03019
1.21565	5.71138E-4	0.00883	0.01287	0.03006
1.21614	5.52098E-4	0.00853	0.01244	0.02906
1.21664	5.43895E-4	0.00841	0.01226	0.02863
1.21714	5.61068E-4	0.00867	0.01264	0.02953
1.21764	5.24921E-4	0.00811	0.01183	0.02763
1.21813	4.90275E-4	0.00758	0.01105	0.0258
1.21864	5.58934E-4	0.00864	0.0126	0.02942
1.21914	4.91075E-4	0.00759	0.01107	0.02585
1.21963	5.55433E-4	0.00858	0.01252	0.02923
1.22014	4.72568E-4	0.0073	0.01065	0.02487
1.22063	5.06781E-4	0.00783	0.01142	0.02667
1.22113	5.21887E-4	0.00807	0.01176	0.02747
1.22164	4.79971E-4	0.00742	0.01082	0.02526
1.22212	5.09916E-4	0.00788	0.01149	0.02684
1.22263	5.39527E-4	0.00834	0.01216	0.0284
1.22313	5.14517E-4	0.00795	0.01159	0.02708
1.22362	5.1295E-4	0.00793	0.01156	0.027
1.22411	4.63532E-4	0.00716	0.01045	0.0244
1.22462	4.8604E-4	0.00751	0.01095	0.02558
1.22512	4.12746E-4	0.00638	0.0093	0.02172
1.22561	5.24188E-4	0.0081	0.01181	0.02759
1.22611	5.08949E-4	0.00787	0.01147	0.02679
1.22661	5.08949E-4	0.00787	0.01147	0.02679
1.22712	5.3926E-4	0.00833	0.01215	0.02838
1.22762	5.30923E-4	0.00821	0.01196	0.02794
1.22813	4.56763E-4	0.00706	0.01029	0.02404
1.22862	4.88674E-4	0.00755	0.01101	0.02572
1.22912	5.13117E-4	0.00793	0.01156	0.02701
1.22962	4.04343E-4	0.00625	0.00911	0.02128
1.23011	4.73969E-4	0.00733	0.01068	0.02495
1.23062	4.33087E-4	0.00669	0.00976	0.02279
1.23111	4.46759E-4	0.00691	0.01007	0.02351
1.23161	4.38723E-4	0.00678	0.00989	0.02309
1.23211	4.47059E-4	0.00691	0.01007	0.02353
1.23261	4.36022E-4	0.00674	0.00983	0.02295
1.23311	4.3162E-4	0.00667	0.00973	0.02272
1.23361	4.1418E-4	0.0064	0.00933	0.0218
1.23411	3.83135E-4	0.00592	0.00863	0.02017
1.23461	4.32654E-4	0.00669	0.00975	0.02277
1.23511	4.32754E-4	0.00669	0.00975	0.02278
1.2356	4.49927E-4	0.00695	0.01014	0.02368
1.23611	4.29453E-4	0.00664	0.00968	0.0226
1.2366	4.81705E-4	0.00745	0.01086	0.02535
1.2371	4.53728E-4	0.00701	0.01022	0.02388
1.23763	4.41224E-4	0.00682	0.00994	0.02322
1.23814	4.79304E-4	0.00741	0.0108	0.02523
1.23865	4.1278E-4	0.00638	0.0093	0.02173
1.23915	3.86637E-4	0.00598	0.00871	0.02035
1.23965	4.51494E-4	0.00698	0.01017	0.02376
1.24015	4.22116E-4	0.00652	0.00951	0.02222
1.24064	4.01042E-4	0.0062	0.00904	0.02111
1.24115	4.46826E-4	0.00691	0.01007	0.02352
1.24165	4.29919E-4	0.00664	0.00969	0.02263
1.24215	3.68096E-4	0.00569	0.00829	0.01937
1.24263	4.5036E-4	0.00696	0.01015	0.0237
1.24315	4.38556E-4	0.00678	0.00988	0.02308
1.24363	4.14947E-4	0.00641	0.00935	0.02184
1.24414	4.25218E-4	0.00657	0.00958	0.02238
1.24463	4.20516E-4	0.0065	0.00948	0.02213
1.24514	4.82005E-4	0.00745	0.01086	0.02537
1.24564	3.73865E-4	0.00578	0.00842	0.01968
1.24612	4.80638E-4	0.00743	0.01083	0.0253
1.24664	4.15414E-4	0.00642	0.00936	0.02186
1.24713	3.99908E-4	0.00618	0.00901	0.02105
1.24762	4.33121E-4	0.00669	0.00976	0.0228
1.24812	4.9461E-4	0.00764	0.01115	0.02603
1.24862	4.42057E-4	0.00683	0.00996	0.02327
1.24912	4.79004E-4	0.0074	0.01079	0.02521
1.24962	4.79738E-4	0.00741	0.01081	0.02525
1.25012	4.2295E-4	0.00654	0.00953	0.02226
1.25062	4.98045E-4	0.0077	0.01122	0.02621
1.25113	4.75069E-4	0.00734	0.01071	0.025
1.25161	4.9491E-4	0.00765	0.01115	0.02605
1.25211	5.52665E-4	0.00854	0.01245	0.02909
1.25262	5.57867E-4	0.00862	0.01257	0.02936
1.25312	4.54062E-4	0.00702	0.01023	0.0239
1.25362	4.8574E-4	0.00751	0.01095	0.02557
1.25412	4.68067E-4	0.00723	0.01055	0.02464
1.25462	4.2275E-4	0.00653	0.00953	0.02225
1.25512	4.42824E-4	0.00684	0.00998	0.02331
1.25562	4.5813E-4	0.00708	0.01032	0.02411
1.25612	4.59764E-4	0.00711	0.01036	0.0242
1.25661	4.3052E-4	0.00665	0.0097	0.02266
1.25711	4.32087E-4	0.00668	0.00974	0.02274
1.25762	4.88841E-4	0.00756	0.01102	0.02573
1.25811	4.09145E-4	0.00632	0.00922	0.02153
1.25861	4.50194E-4	0.00696	0.01014	0.02369
1.25912	4.06577E-4	0.00628	0.00916	0.0214
1.2596	4.35755E-4	0.00674	0.00982	0.02293
1.26011	4.60264E-4	0.00711	0.01037	0.02422
1.2606	5.06815E-4	0.00783	0.01142	0.02667
1.2611	4.82539E-4	0.00746	0.01087	0.0254
1.2616	4.02076E-4	0.00621	0.00906	0.02116
1.26209	4.81205E-4	0.00744	0.01084	0.02533
1.2626	4.21516E-4	0.00651	0.0095	0.02219
1.2631	4.26051E-4	0.00659	0.0096	0.02242
1.26361	4.06477E-4	0.00628	0.00916	0.02139
1.26411	4.07111E-4	0.00629	0.00917	0.02143
1.26461	4.36122E-4	0.00674	0.00983	0.02295
1.26511	4.5753E-4	0.00707	0.01031	0.02408
1.26561	3.97774E-4	0.00615	0.00896	0.02094
1.26611	4.33287E-4	0.0067	0.00976	0.0228
1.26662	4.24751E-4	0.00656	0.00957	0.02236
1.26711	3.85303E-4	0.00596	0.00868	0.02028
1.2676	4.07278E-4	0.00629	0.00918	0.02144
1.26811	3.80501E-4	0.00588	0.00857	0.02003
1.2686	4.55462E-4	0.00704	0.01026	0.02397
1.2691	3.8727E-4	0.00599	0.00873	0.02038
1.2696	3.85636E-4	0.00596	0.00869	0.0203
1.2701	4.35822E-4	0.00674	0.00982	0.02294
1.2706	4.09879E-4	0.00634	0.00924	0.02157
1.27109	4.29453E-4	0.00664	0.00968	0.0226
1.2716	3.79734E-4	0.00587	0.00856	0.01999
1.27209	4.52094E-4	0.00699	0.01019	0.02379
1.27259	4.42957E-4	0.00685	0.00998	0.02331
1.27309	4.55162E-4	0.00703	0.01026	0.02396
1.27358	4.62465E-4	0.00715	0.01042	0.02434
1.27408	4.54528E-4	0.00703	0.01024	0.02392
1.27459	4.63398E-4	0.00716	0.01044	0.02439
1.27508	4.63232E-4	0.00716	0.01044	0.02438
1.27558	4.87874E-4	0.00754	0.01099	0.02568
1.27609	4.86307E-4	0.00752	0.01096	0.0256
1.27658	4.88441E-4	0.00755	0.01101	0.02571
1.27708	5.47196E-4	0.00846	0.01233	0.0288
1.27758	5.49464E-4	0.00849	0.01238	0.02892
1.27808	5.26755E-4	0.00814	0.01187	0.02772
1.27858	4.89675E-4	0.00757	0.01103	0.02577
1.27909	4.37989E-4	0.00677	0.00987	0.02305
1.27959	4.75303E-4	0.00735	0.01071	0.02502
1.28009	4.67533E-4	0.00723	0.01054	0.02461
1.28058	3.99608E-4	0.00618	0.00901	0.02103
1.28108	4.79104E-4	0.00741	0.0108	0.02522
1.28158	4.96144E-4	0.00767	0.01118	0.02611
1.28208	4.33354E-4	0.0067	0.00977	0.02281
1.28257	4.75536E-4	0.00735	0.01072	0.02503
1.28307	4.68234E-4	0.00724	0.01055	0.02464
1.28357	4.2235E-4	0.00653	0.00952	0.02223
1.28407	4.19349E-4	0.00648	0.00945	0.02207
1.28457	4.52061E-4	0.00699	0.01019	0.02379
1.28507	4.23617E-4	0.00655	0.00955	0.0223
1.28557	4.28852E-4	0.00663	0.00966	0.02257
1.28607	4.65032E-4	0.00719	0.01048	0.02448
1.28656	4.09745E-4	0.00633	0.00923	0.02157
1.28706	4.26051E-4	0.00659	0.0096	0.02242
1.28756	4.60797E-4	0.00712	0.01038	0.02425
1.28806	4.63032E-4	0.00716	0.01043	0.02437
1.28858	4.45625E-4	0.00689	0.01004	0.02345
1.28911	4.53061E-4	0.007	0.01021	0.02385
1.2896	5.54165E-4	0.00857	0.01249	0.02917
1.29011	5.03213E-4	0.00778	0.01134	0.02648
1.2906	4.86374E-4	0.00752	0.01096	0.0256
1.2911	5.4066E-4	0.00836	0.01218	0.02846
1.29161	4.45992E-4	0.00689	0.01005	0.02347
1.2921	4.54662E-4	0.00703	0.01025	0.02393
1.2926	5.13884E-4	0.00794	0.01158	0.02705
1.2931	4.79804E-4	0.00742	0.01081	0.02525
1.29359	5.41161E-4	0.00836	0.01219	0.02848
1.29409	5.29623E-4	0.00819	0.01193	0.02787
1.29459	5.2072E-4	0.00805	0.01173	0.02741
1.29509	5.14751E-4	0.00796	0.0116	0.02709
1.29559	5.02146E-4	0.00776	0.01132	0.02643
1.29608	4.52061E-4	0.00699	0.01019	0.02379
1.2966	4.60564E-4	0.00712	0.01038	0.02424
1.29709	4.75736E-4	0.00735	0.01072	0.02504
1.29758	4.95144E-4	0.00765	0.01116	0.02606
1.29808	5.05147E-4	0.00781	0.01138	0.02659
1.29859	5.10249E-4	0.00789	0.0115	0.02686
1.29908	5.13484E-4	0.00794	0.01157	0.02703
1.29958	5.08849E-4	0.00786	0.01147	0.02678
1.30009	4.81605E-4	0.00744	0.01085	0.02535
1.30058	4.99345E-4	0.00772	0.01125	0.02628
1.30107	5.01879E-4	0.00776	0.01131	0.02641
1.30158	4.58697E-4	0.00709	0.01034	0.02414
1.30207	5.40027E-4	0.00835	0.01217	0.02842
1.30257	4.99112E-4	0.00771	0.01125	0.02627
1.30306	5.43128E-4	0.00839	0.01224	0.02859
1.30357	6.22824E-4	0.00963	0.01404	0.03278
1.30407	5.83876E-4	0.00902	0.01316	0.03073
1.30457	5.20486E-4	0.00804	0.01173	0.02739
1.30507	5.60701E-4	0.00867	0.01264	0.02951
1.30557	5.72139E-4	0.00884	0.01289	0.03011
1.30607	5.39293E-4	0.00834	0.01215	0.02838
1.30658	5.47029E-4	0.00845	0.01233	0.02879
1.30707	5.51031E-4	0.00852	0.01242	0.029
1.30757	5.00279E-4	0.00773	0.01127	0.02633
1.30807	5.10349E-4	0.00789	0.0115	0.02686
1.30856	5.55232E-4	0.00858	0.01251	0.02922
1.30908	4.75303E-4	0.00735	0.01071	0.02502
1.30956	4.93343E-4	0.00763	0.01112	0.02597
1.31007	5.15785E-4	0.00797	0.01162	0.02715
1.31056	5.2262E-4	0.00808	0.01178	0.02751
1.31106	4.92042E-4	0.0076	0.01109	0.0259
1.31156	5.28856E-4	0.00817	0.01192	0.02783
1.31206	5.22687E-4	0.00808	0.01178	0.02751
1.31256	4.72535E-4	0.0073	0.01065	0.02487
1.31305	5.03713E-4	0.00779	0.01135	0.02651
1.31355	5.17652E-4	0.008	0.01167	0.02724
1.31406	4.5046E-4	0.00696	0.01015	0.02371
1.31459	4.9331E-4	0.00762	0.01112	0.02596
1.3151	5.03513E-4	0.00778	0.01135	0.0265
1.3156	4.65599E-4	0.0072	0.01049	0.02451
1.3161	4.95577E-4	0.00766	0.01117	0.02608
1.3166	4.87141E-4	0.00753	0.01098	0.02564
1.31709	4.62731E-4	0.00715	0.01043	0.02435
1.31759	4.36455E-4	0.00675	0.00984	0.02297
1.31809	5.02846E-4	0.00777	0.01133	0.02647
1.31859	4.72835E-4	0.00731	0.01066	0.02489
1.31909	4.97078E-4	0.00768	0.0112	0.02616
1.31959	4.99912E-4	0.00773	0.01127	0.02631
1.32009	5.1325E-4	0.00793	0.01157	0.02701
1.32059	5.24388E-4	0.0081	0.01182	0.0276
1.32109	5.61935E-4	0.00869	0.01266	0.02958
1.32159	4.87974E-4	0.00754	0.011	0.02568
1.32208	4.80171E-4	0.00742	0.01082	0.02527
1.32259	5.47763E-4	0.00847	0.01234	0.02883
1.32308	5.74406E-4	0.00888	0.01294	0.03023
1.32358	5.56233E-4	0.0086	0.01253	0.02928
1.32409	5.18119E-4	0.00801	0.01168	0.02727
1.32458	6.1062E-4	0.00944	0.01376	0.03214
1.32508	5.39026E-4	0.00833	0.01215	0.02837
1.32558	5.7604E-4	0.0089	0.01298	0.03032
1.32608	5.36092E-4	0.00829	0.01208	0.02822
1.32657	5.55066E-4	0.00858	0.01251	0.02921
1.32708	5.54099E-4	0.00856	0.01249	0.02916
1.32758	6.02683E-4	0.00932	0.01358	0.03172
1.32808	5.98749E-4	0.00925	0.01349	0.03151
1.32857	6.32228E-4	0.00977	0.01425	0.03328
1.32908	6.14088E-4	0.00949	0.01384	0.03232
1.32959	5.61968E-4	0.00869	0.01266	0.02958
1.33007	5.53132E-4	0.00855	0.01246	0.02911
1.33059	6.09086E-4	0.00941	0.01373	0.03206
1.33108	6.13021E-4	0.00947	0.01381	0.03226
1.33158	5.72439E-4	0.00885	0.0129	0.03013
1.33207	5.58467E-4	0.00863	0.01258	0.02939
1.33257	6.00883E-4	0.00929	0.01354	0.03163
1.33307	5.93813E-4	0.00918	0.01338	0.03125
1.33357	5.09716E-4	0.00788	0.01149	0.02683
1.33407	5.07648E-4	0.00785	0.01144	0.02672
1.33456	5.34558E-4	0.00826	0.01205	0.02813
1.33506	5.0418E-4	0.00779	0.01136	0.02654
1.33556	5.6567E-4	0.00874	0.01275	0.02977
1.33606	5.57033E-4	0.00861	0.01255	0.02932
1.33656	5.01679E-4	0.00775	0.01131	0.0264
1.33705	5.51064E-4	0.00852	0.01242	0.029
1.33757	5.27722E-4	0.00816	0.01189	0.02777
1.33805	4.98712E-4	0.00771	0.01124	0.02625
1.33855	5.25421E-4	0.00812	0.01184	0.02765
1.33905	5.11883E-4	0.00791	0.01154	0.02694
1.33955	5.33091E-4	0.00824	0.01201	0.02806
1.34009	5.30323E-4	0.0082	0.01195	0.02791
1.34059	5.26522E-4	0.00814	0.01186	0.02771
1.3411	5.63569E-4	0.00871	0.0127	0.02966
1.3416	5.03447E-4	0.00778	0.01135	0.0265
1.3421	5.0478E-4	0.0078	0.01138	0.02657
1.3426	5.62802E-4	0.0087	0.01268	0.02962
1.3431	4.8614E-4	0.00751	0.01096	0.02559
1.3436	5.60501E-4	0.00866	0.01263	0.0295
1.34409	5.45762E-4	0.00844	0.0123	0.02872
1.34459	5.39527E-4	0.00834	0.01216	0.0284
1.34509	5.65269E-4	0.00874	0.01274	0.02975
1.34559	5.4813E-4	0.00847	0.01235	0.02885
1.34608	5.2959E-4	0.00819	0.01193	0.02787
1.34659	5.42728E-4	0.00839	0.01223	0.02856
1.34708	5.31424E-4	0.00821	0.01198	0.02797
1.34759	5.23954E-4	0.0081	0.01181	0.02758
1.34808	5.68337E-4	0.00878	0.01281	0.02991
1.34858	5.78008E-4	0.00893	0.01303	0.03042
1.34908	5.37926E-4	0.00831	0.01212	0.02831
1.34958	5.51998E-4	0.00853	0.01244	0.02905
1.35008	5.64603E-4	0.00873	0.01272	0.02972
1.35057	5.66637E-4	0.00876	0.01277	0.02982
1.35108	5.29556E-4	0.00818	0.01193	0.02787
1.35157	5.64236E-4	0.00872	0.01271	0.0297
1.35207	6.22057E-4	0.00961	0.01402	0.03274
1.35258	5.99549E-4	0.00927	0.01351	0.03156
1.35308	5.78708E-4	0.00894	0.01304	0.03046
1.35357	6.3953E-4	0.00988	0.01441	0.03366
1.35406	6.29493E-4	0.00973	0.01419	0.03313
1.35456	6.05484E-4	0.00936	0.01364	0.03187
1.35506	6.45566E-4	0.00998	0.01455	0.03398
1.35556	6.13921E-4	0.00949	0.01383	0.03231
1.35607	6.36729E-4	0.00984	0.01435	0.03351
1.35657	6.21157E-4	0.0096	0.014	0.03269
1.35706	5.98982E-4	0.00926	0.0135	0.03153
1.35757	5.62735E-4	0.0087	0.01268	0.02962
1.35806	6.04884E-4	0.00935	0.01363	0.03184
1.35857	5.89178E-4	0.00911	0.01328	0.03101
1.35906	5.88578E-4	0.0091	0.01326	0.03098
1.35956	6.18689E-4	0.00956	0.01394	0.03256
1.36006	5.74806E-4	0.00888	0.01295	0.03025
1.36056	5.62635E-4	0.0087	0.01268	0.02961
1.36106	5.94113E-4	0.00918	0.01339	0.03127
1.36156	6.11987E-4	0.00946	0.01379	0.03221
1.36205	5.78274E-4	0.00894	0.01303	0.03044
1.36256	5.24988E-4	0.00811	0.01183	0.02763
1.36304	6.58804E-4	0.01018	0.01485	0.03467
1.36355	5.64636E-4	0.00873	0.01272	0.02972
1.36405	5.572E-4	0.00861	0.01256	0.02933
1.36455	6.84514E-4	0.01058	0.01543	0.03603
1.36504	6.54636E-4	0.01012	0.01475	0.03445
1.36555	6.47233E-4	0.01	0.01459	0.03406
1.36605	6.46433E-4	0.00999	0.01457	0.03402
1.36656	6.45833E-4	0.00998	0.01455	0.03399
1.36706	5.68471E-4	0.00879	0.01281	0.02992
1.36755	6.22791E-4	0.00963	0.01403	0.03278
1.36806	5.99716E-4	0.00927	0.01351	0.03156
1.36855	5.70638E-4	0.00882	0.01286	0.03003
1.36906	6.47E-4	0.01	0.01458	0.03405
1.36956	6.07685E-4	0.00939	0.01369	0.03198
1.37005	6.17889E-4	0.00955	0.01392	0.03252
1.37055	6.18456E-4	0.00956	0.01394	0.03255
1.37104	6.07685E-4	0.00939	0.01369	0.03198
1.37154	6.15922E-4	0.00952	0.01388	0.03242
1.37205	5.68337E-4	0.00878	0.01281	0.02991
1.37254	6.05218E-4	0.00935	0.01364	0.03185
1.37304	6.40698E-4	0.0099	0.01444	0.03372
1.37354	5.90279E-4	0.00912	0.0133	0.03107
1.37404	6.27993E-4	0.00971	0.01415	0.03305
1.37454	6.22657E-4	0.00962	0.01403	0.03277
1.37504	5.37426E-4	0.00831	0.01211	0.02829
1.37553	6.44466E-4	0.00996	0.01452	0.03392
1.37603	6.1969E-4	0.00958	0.01396	0.03262
1.37653	5.78741E-4	0.00894	0.01304	0.03046
1.37703	6.18923E-4	0.00957	0.01395	0.03257
1.37752	7.06655E-4	0.01092	0.01592	0.03719
1.37804	5.91813E-4	0.00915	0.01334	0.03115
1.37853	6.22024E-4	0.00961	0.01402	0.03274
1.37903	6.2896E-4	0.00972	0.01417	0.0331
1.37952	5.78908E-4	0.00895	0.01305	0.03047
1.38002	6.90116E-4	0.01067	0.01555	0.03632
1.38053	6.3973E-4	0.00989	0.01442	0.03367
1.38102	6.7491E-4	0.01043	0.01521	0.03552
1.38153	6.39064E-4	0.00988	0.0144	0.03363
1.38203	6.46066E-4	0.00999	0.01456	0.034
1.38253	6.09386E-4	0.00942	0.01373	0.03207
1.38303	5.97448E-4	0.00923	0.01346	0.03144
1.38352	6.03984E-4	0.00934	0.01361	0.03179
1.38402	6.26492E-4	0.00968	0.01412	0.03297
1.38451	5.80542E-4	0.00897	0.01308	0.03055
1.38502	5.99582E-4	0.00927	0.01351	0.03156
1.38552	6.55703E-4	0.01013	0.01478	0.03451
1.38602	6.16922E-4	0.00954	0.0139	0.03247
1.38652	6.04084E-4	0.00934	0.01361	0.03179
1.38701	6.27893E-4	0.0097	0.01415	0.03305
1.38752	6.23725E-4	0.00964	0.01406	0.03283
1.38802	5.65336E-4	0.00874	0.01274	0.02975
1.38852	6.18956E-4	0.00957	0.01395	0.03258
1.38902	5.97181E-4	0.00923	0.01346	0.03143
1.38951	6.16188E-4	0.00952	0.01389	0.03243
1.39002	6.54336E-4	0.01011	0.01475	0.03444
1.39051	6.49401E-4	0.01004	0.01463	0.03418
1.39103	6.25258E-4	0.00966	0.01409	0.03291
1.39155	6.48767E-4	0.01003	0.01462	0.03415
1.39206	6.29427E-4	0.00973	0.01418	0.03313
1.39256	5.72272E-4	0.00885	0.0129	0.03012
1.39306	6.25358E-4	0.00967	0.01409	0.03291
1.39356	6.85014E-4	0.01059	0.01544	0.03605
1.39406	6.49901E-4	0.01004	0.01465	0.03421
1.39456	6.41498E-4	0.00991	0.01446	0.03376
1.39506	6.88882E-4	0.01065	0.01552	0.03626
1.39555	6.16655E-4	0.00953	0.0139	0.03246
1.39605	6.61072E-4	0.01022	0.0149	0.03479
1.39655	6.65673E-4	0.01029	0.015	0.03504
1.39704	6.44832E-4	0.00997	0.01453	0.03394
1.39755	6.99819E-4	0.01082	0.01577	0.03683
1.39804	6.98652E-4	0.0108	0.01574	0.03677
1.39855	7.4747E-4	0.01155	0.01684	0.03934
1.39904	6.44699E-4	0.00996	0.01453	0.03393
1.39954	7.65577E-4	0.01183	0.01725	0.04029
1.40004	6.90616E-4	0.01067	0.01556	0.03635
1.40054	7.14358E-4	0.01104	0.0161	0.0376
1.40105	6.78211E-4	0.01048	0.01528	0.0357
1.40153	7.15325E-4	0.01106	0.01612	0.03765
1.40204	7.48904E-4	0.01158	0.01688	0.03942
1.40254	7.53906E-4	0.01165	0.01699	0.03968
1.40304	7.44336E-4	0.0115	0.01677	0.03918
1.40353	7.26763E-4	0.01123	0.01638	0.03825
1.40404	7.04655E-4	0.01089	0.01588	0.03709
1.40454	6.86481E-4	0.01061	0.01547	0.03613
1.40502	7.54139E-4	0.01166	0.01699	0.03969
1.40553	7.23428E-4	0.01118	0.0163	0.03808
1.40603	8.00257E-4	0.01237	0.01803	0.04212
1.40653	7.73313E-4	0.01195	0.01743	0.0407
1.40703	7.0949E-4	0.01097	0.01599	0.03734
1.40753	7.57341E-4	0.01171	0.01707	0.03986
1.40803	7.01653E-4	0.01084	0.01581	0.03693
1.40852	6.77778E-4	0.01048	0.01527	0.03567
1.40904	6.76711E-4	0.01046	0.01525	0.03562
1.40952	6.70042E-4	0.01036	0.0151	0.03527
1.41002	6.9205E-4	0.0107	0.0156	0.03642
1.41053	7.07556E-4	0.01094	0.01594	0.03724
1.41102	7.12624E-4	0.01101	0.01606	0.03751
1.41153	6.96351E-4	0.01076	0.01569	0.03665
1.41202	6.61472E-4	0.01022	0.01491	0.03481
1.41252	6.95118E-4	0.01074	0.01566	0.03659
1.41301	7.01687E-4	0.01085	0.01581	0.03693
1.41352	6.49034E-4	0.01003	0.01463	0.03416
1.41401	7.02354E-4	0.01086	0.01583	0.03697
1.41451	7.61442E-4	0.01177	0.01716	0.04008
1.41501	7.04955E-4	0.0109	0.01589	0.0371
1.41551	7.05521E-4	0.0109	0.0159	0.03713
1.41601	7.41068E-4	0.01145	0.0167	0.039
1.41652	6.66774E-4	0.01031	0.01503	0.03509
1.41706	6.66507E-4	0.0103	0.01502	0.03508
1.41755	7.0072E-4	0.01083	0.01579	0.03688
1.41806	6.90716E-4	0.01068	0.01557	0.03635
1.41856	6.89249E-4	0.01065	0.01553	0.03628
1.41905	7.20694E-4	0.01114	0.01624	0.03793
1.41955	7.0202E-4	0.01085	0.01582	0.03695
1.42006	7.03788E-4	0.01088	0.01586	0.03704
1.42056	7.47737E-4	0.01156	0.01685	0.03935
1.42104	7.361E-4	0.01138	0.01659	0.03874
1.42156	7.28263E-4	0.01126	0.01641	0.03833
1.42205	7.19927E-4	0.01113	0.01622	0.03789
1.42254	7.36533E-4	0.01138	0.0166	0.03876
1.42305	7.58141E-4	0.01172	0.01708	0.0399
1.42354	7.75747E-4	0.01199	0.01748	0.04083
1.42404	7.9999E-4	0.01236	0.01803	0.0421
1.42455	7.78815E-4	0.01204	0.01755	0.04099
1.42504	7.44236E-4	0.0115	0.01677	0.03917
1.42554	8.50108E-4	0.01314	0.01916	0.04474
1.42604	7.70912E-4	0.01192	0.01737	0.04057
1.42654	7.88385E-4	0.01219	0.01777	0.04149
1.42703	8.26566E-4	0.01278	0.01863	0.0435
1.42753	8.10127E-4	0.01252	0.01826	0.04264
1.42803	8.07793E-4	0.01249	0.0182	0.04252
1.42853	8.4634E-4	0.01308	0.01907	0.04454
1.42902	8.11061E-4	0.01254	0.01828	0.04269
1.42955	7.73047E-4	0.01195	0.01742	0.04069
1.43003	7.92554E-4	0.01225	0.01786	0.04171
1.43053	8.49008E-4	0.01312	0.01913	0.04468
1.43102	8.29167E-4	0.01282	0.01869	0.04364
1.43152	9.10798E-4	0.01408	0.02052	0.04794
1.43203	8.47074E-4	0.01309	0.01909	0.04458
1.43253	8.24699E-4	0.01275	0.01858	0.04341
1.43304	8.271E-4	0.01278	0.01864	0.04353
1.43353	8.21331E-4	0.01269	0.01851	0.04323
1.43403	7.70812E-4	0.01191	0.01737	0.04057
1.43453	7.77315E-4	0.01201	0.01752	0.04091
1.43502	8.09593E-4	0.01251	0.01824	0.04261
1.43552	8.35236E-4	0.01291	0.01882	0.04396
1.43602	7.72813E-4	0.01194	0.01742	0.04067
1.43653	8.05525E-4	0.01245	0.01815	0.0424
1.43703	8.1016E-4	0.01252	0.01826	0.04264
1.43752	7.60008E-4	0.01175	0.01713	0.04
1.43803	8.08593E-4	0.0125	0.01822	0.04256
1.43852	7.62809E-4	0.01179	0.01719	0.04015
1.43902	7.77481E-4	0.01202	0.01752	0.04092
1.43953	8.0079E-4	0.01238	0.01805	0.04215
1.44002	7.92354E-4	0.01225	0.01786	0.0417
1.44051	8.0876E-4	0.0125	0.01823	0.04257
1.44101	8.07626E-4	0.01248	0.0182	0.04251
1.44151	8.56911E-4	0.01324	0.01931	0.0451
1.44202	8.09227E-4	0.01251	0.01824	0.04259
1.44254	7.90019E-4	0.01221	0.0178	0.04158
1.44305	8.16363E-4	0.01262	0.0184	0.04297
1.44356	8.22898E-4	0.01272	0.01854	0.04331
1.44406	8.34403E-4	0.0129	0.0188	0.04392
1.44456	8.40405E-4	0.01299	0.01894	0.04423
1.44505	8.26766E-4	0.01278	0.01863	0.04351
1.44556	8.23832E-4	0.01273	0.01856	0.04336
1.44605	8.21965E-4	0.0127	0.01852	0.04326
1.44656	8.46874E-4	0.01309	0.01908	0.04457
1.44706	7.6391E-4	0.01181	0.01721	0.04021
1.44754	8.74451E-4	0.01352	0.01971	0.04602
1.44805	8.99093E-4	0.0139	0.02026	0.04732
1.44855	8.46607E-4	0.01309	0.01908	0.04456
1.44905	9.07396E-4	0.01402	0.02045	0.04776
1.44955	9.39908E-4	0.01453	0.02118	0.04947
1.45005	8.43506E-4	0.01304	0.01901	0.0444
1.45054	8.73951E-4	0.01351	0.01969	0.046
1.45104	9.29771E-4	0.01437	0.02095	0.04894
1.45154	8.93358E-4	0.01381	0.02013	0.04702
1.45204	9.79723E-4	0.01514	0.02208	0.05156
1.45254	9.61283E-4	0.01486	0.02166	0.05059
1.45303	9.65484E-4	0.01492	0.02176	0.05081
1.45354	9.61916E-4	0.01487	0.02168	0.05063
1.45403	9.73054E-4	0.01504	0.02193	0.05121
1.45453	9.74888E-4	0.01507	0.02197	0.05131
1.45503	9.7112E-4	0.01501	0.02188	0.05111
1.45553	0.001	0.0155	0.0226	0.05278
1.45603	0.00104	0.01611	0.02349	0.05486
1.45652	0.00108	0.01663	0.02424	0.05661
1.45702	0.00109	0.01681	0.0245	0.05723
1.45752	0.00112	0.01731	0.02523	0.05893
1.45802	0.00105	0.01625	0.02369	0.05533
1.45852	0.00105	0.01626	0.02371	0.05537
1.45903	0.00113	0.01744	0.02543	0.05939
1.45952	0.00105	0.01622	0.02365	0.05523
1.46002	0.00109	0.0169	0.02463	0.05754
1.46052	0.00113	0.0175	0.02551	0.05959
1.46102	0.00114	0.01767	0.02576	0.06016
1.46152	0.00113	0.01754	0.02557	0.05973
1.46202	0.00117	0.01809	0.02637	0.0616
1.46252	0.00114	0.01764	0.02571	0.06005
1.46301	0.00121	0.01868	0.02724	0.06361
1.46351	0.00118	0.01831	0.02669	0.06235
1.46401	0.00118	0.01825	0.0266	0.06213
1.4645	0.00126	0.01955	0.0285	0.06656
1.46501	0.00125	0.01928	0.02811	0.06566
1.4655	0.00125	0.01925	0.02806	0.06554
1.466	0.00127	0.01956	0.02852	0.06661
1.4665	0.00131	0.0202	0.02946	0.0688
1.46701	0.00134	0.02065	0.0301	0.0703
1.46749	0.00138	0.02133	0.0311	0.07263
1.46801	0.00141	0.02184	0.03184	0.07436
1.46851	0.00142	0.02192	0.03197	0.07466
1.46901	0.00147	0.02271	0.03311	0.07733
1.46951	0.00145	0.02235	0.03258	0.0761
1.47001	0.00149	0.02304	0.03359	0.07846
1.47051	0.00152	0.02347	0.03422	0.07993
1.47101	0.0015	0.0232	0.03382	0.079
1.47151	0.00161	0.02496	0.03639	0.08499
1.472	0.00156	0.02415	0.03521	0.08224
1.4725	0.00163	0.02521	0.03676	0.08585
1.473	0.00167	0.02579	0.03761	0.08783
1.4735	0.00166	0.02572	0.0375	0.0876
1.474	0.00165	0.02549	0.03716	0.08679
1.4745	0.00176	0.02715	0.03959	0.09246
1.475	0.00174	0.02691	0.03924	0.09165
1.4755	0.00181	0.02791	0.04069	0.09503
1.476	0.00182	0.02816	0.04106	0.09589
1.4765	0.00187	0.02885	0.04206	0.09824
1.477	0.00195	0.03009	0.04387	0.10247
1.4775	0.00195	0.03019	0.04402	0.10281
1.47799	0.00201	0.03105	0.04527	0.10573
1.47849	0.00206	0.03185	0.04644	0.10846
1.47899	0.00211	0.03254	0.04745	0.11081
1.47949	0.00216	0.03345	0.04877	0.11391
1.47998	0.00217	0.03353	0.04888	0.11416
1.48049	0.00221	0.03414	0.04977	0.11624
1.48099	0.0023	0.03558	0.05187	0.12115
1.48148	0.0024	0.03713	0.05414	0.12645
1.48198	0.00241	0.03729	0.05437	0.12698
1.48247	0.00253	0.03912	0.05704	0.13322
1.48298	0.00256	0.03949	0.05758	0.13448
1.48349	0.00259	0.03997	0.05828	0.13612
1.48398	0.00267	0.04123	0.06012	0.14041
1.48448	0.0027	0.04181	0.06095	0.14236
1.48498	0.00273	0.04214	0.06144	0.14349
1.48548	0.00283	0.04378	0.06383	0.14907
1.48598	0.0029	0.04484	0.06538	0.1527
1.48647	0.00293	0.04527	0.066	0.15415
1.48697	0.003	0.0464	0.06765	0.158
1.48747	0.00308	0.04754	0.06931	0.16187
1.48797	0.00313	0.0483	0.07042	0.16448
1.48847	0.0032	0.04942	0.07205	0.16828
1.48897	0.00329	0.05082	0.07409	0.17304
1.48947	0.00342	0.0528	0.07698	0.17979
1.48997	0.00345	0.05337	0.07781	0.18173
1.49046	0.00355	0.05492	0.08008	0.18703
1.49096	0.00367	0.05675	0.08273	0.19323
1.49146	0.00375	0.05792	0.08445	0.19724
1.49196	0.00385	0.05948	0.08672	0.20254
1.49246	0.00391	0.06039	0.08804	0.20563
1.49299	0.00402	0.06215	0.09062	0.21164
1.4935	0.00415	0.06408	0.09342	0.2182
1.494	0.00426	0.06585	0.09601	0.22424
1.49451	0.00437	0.06751	0.09843	0.22988
1.49501	0.00451	0.06969	0.1016	0.2373
1.49551	0.00464	0.07174	0.10459	0.24428
1.496	0.00468	0.07231	0.10542	0.24622
1.49651	0.00484	0.07481	0.10908	0.25476
1.497	0.00499	0.07717	0.11251	0.26277
1.4975	0.00509	0.07861	0.11462	0.2677
1.498	0.00523	0.0809	0.11795	0.27548
1.4985	0.0054	0.08341	0.12161	0.28402
1.499	0.00547	0.08454	0.12327	0.2879
1.4995	0.00567	0.0876	0.12771	0.29829
1.5	0.00576	0.08899	0.12975	0.30304
1.50049	0.00594	0.09178	0.13382	0.31255
1.50099	0.00612	0.09466	0.13802	0.32236
1.50149	0.00625	0.09665	0.14092	0.32912
1.50199	0.00644	0.09957	0.14518	0.33907
1.50248	0.00657	0.10147	0.14795	0.34554
1.50298	0.0068	0.10509	0.15322	0.35787
1.50348	0.00699	0.10804	0.15752	0.36791
1.50399	0.00714	0.11038	0.16093	0.37586
1.50448	0.00739	0.11425	0.16658	0.38906
1.50498	0.00753	0.11638	0.16968	0.3963
1.50548	0.00772	0.11939	0.17407	0.40655
1.50598	0.00797	0.12311	0.17949	0.41922
1.50647	0.0082	0.12672	0.18476	0.43153
1.50698	0.00843	0.13037	0.19007	0.44393
1.50747	0.00864	0.13354	0.1947	0.45475
1.50797	0.00884	0.13657	0.19912	0.46506
1.50847	0.00901	0.13922	0.20299	0.47409
1.50898	0.0093	0.14379	0.20964	0.48964
1.50948	0.0095	0.14686	0.21412	0.5001
1.50998	0.00974	0.15054	0.21948	0.51262
1.51048	0.01001	0.15464	0.22546	0.52659
1.51098	0.01024	0.15822	0.23069	0.5388
1.51147	0.0105	0.16231	0.23664	0.5527
1.51197	0.0108	0.16689	0.24332	0.5683
1.51247	0.01102	0.17026	0.24824	0.57978
1.51297	0.01125	0.17395	0.25362	0.59235
1.51347	0.01155	0.17844	0.26017	0.60764
1.51396	0.01187	0.18345	0.26747	0.62469
1.51446	0.01219	0.18847	0.27478	0.64178
1.51496	0.01252	0.19351	0.28213	0.65894
1.51546	0.01286	0.19874	0.28977	0.67678
1.51597	0.01312	0.20286	0.29577	0.69079
1.51646	0.01352	0.20904	0.30478	0.71184
1.51695	0.01385	0.21401	0.31202	0.72875
1.51747	0.01418	0.21917	0.31955	0.74633
1.51797	0.01459	0.22545	0.32871	0.76772
1.51847	0.01498	0.23152	0.33755	0.78838
1.51897	0.01535	0.2373	0.34598	0.80806
1.51946	0.01576	0.24356	0.35511	0.8294
1.51997	0.01613	0.24926	0.36342	0.84879
1.52046	0.01651	0.25525	0.37215	0.86919
1.52096	0.01694	0.26176	0.38164	0.89135
1.52147	0.01735	0.26821	0.39105	0.91333
1.52196	0.01775	0.27432	0.39996	0.93415
1.52246	0.01826	0.28226	0.41153	0.96115
1.52296	0.01875	0.28987	0.42263	0.98709
1.52346	0.01926	0.29767	0.434	1.01364
1.52396	0.01978	0.30568	0.44568	1.04092
1.52445	0.02027	0.31328	0.45676	1.0668
1.52496	0.0207	0.31992	0.46644	1.08942
1.52545	0.02128	0.32884	0.47945	1.1198
1.52595	0.0218	0.33687	0.49116	1.14713
1.52644	0.02239	0.34614	0.50466	1.17868
1.52694	0.02299	0.35526	0.51797	1.20976
1.52744	0.02354	0.36379	0.53041	1.23881
1.52793	0.02419	0.37382	0.54502	1.27294
1.52843	0.02488	0.38455	0.56067	1.30949
1.52894	0.02547	0.39372	0.57404	1.34072
1.52944	0.0261	0.40338	0.58812	1.37361
1.52993	0.02669	0.41254	0.60148	1.40481
1.53044	0.02739	0.42331	0.61719	1.44149
1.53094	0.02807	0.43391	0.63263	1.47756
1.53143	0.02875	0.44433	0.64783	1.51305
1.53194	0.02949	0.45584	0.66462	1.55227
1.53243	0.03023	0.46717	0.68113	1.59082
1.53293	0.03096	0.47852	0.69768	1.6295
1.53343	0.03175	0.49071	0.71545	1.671
1.53393	0.0325	0.50238	0.73247	1.71073
1.53443	0.03332	0.51498	0.75083	1.75363
1.53493	0.03415	0.52779	0.76952	1.79727
1.53542	0.03503	0.54149	0.78949	1.84392
1.53592	0.03592	0.55514	0.80939	1.89039
1.53642	0.03676	0.56815	0.82835	1.93469
1.53692	0.03763	0.58165	0.84804	1.98066
1.53741	0.03861	0.59677	0.87009	2.03217
1.5379	0.03947	0.61009	0.88951	2.07752
1.53841	0.04045	0.62524	0.9116	2.12912
1.53891	0.04144	0.64054	0.9339	2.18121
1.53943	0.04247	0.6564	0.95702	2.2352
1.53994	0.04353	0.67281	0.98095	2.29109
1.54044	0.04456	0.68875	1.0042	2.34539
1.54095	0.04564	0.7054	1.02847	2.40207
1.54144	0.04673	0.72232	1.05313	2.45968
1.54195	0.04781	0.73888	1.07728	2.51608
1.54244	0.04897	0.75688	1.10353	2.57739
1.54294	0.0501	0.77434	1.12899	2.63685
1.54343	0.0514	0.79451	1.15839	2.70552
1.54393	0.05265	0.81378	1.18649	2.77114
1.54442	0.05389	0.83284	1.21428	2.83606
1.54492	0.05518	0.85288	1.24349	2.90428
1.54542	0.05643	0.8722	1.27166	2.97005
1.54592	0.05769	0.89164	1.3	3.03626
1.54641	0.05906	0.91277	1.33082	3.10824
1.54692	0.06045	0.93435	1.36227	3.1817
1.54741	0.06193	0.95722	1.39562	3.25958
1.5479	0.06337	0.9795	1.4281	3.33545
1.5484	0.06485	1.0023	1.46135	3.4131
1.5489	0.06631	1.02491	1.49432	3.4901
1.54941	0.06775	1.04707	1.52662	3.56555
1.5499	0.06938	1.07237	1.56351	3.65171
1.55039	0.07093	1.09627	1.59836	3.73309
1.55089	0.07256	1.12156	1.63522	3.8192
1.55139	0.07412	1.14553	1.67018	3.90084
1.55189	0.07599	1.17444	1.71233	3.99928
1.55238	0.07756	1.19877	1.7478	4.08214
1.55288	0.07933	1.22609	1.78764	4.17517
1.55338	0.08109	1.25331	1.82731	4.26784
1.55388	0.08281	1.27984	1.866	4.3582
1.55438	0.08452	1.30628	1.90455	4.44823
1.55487	0.08643	1.33593	1.94777	4.54918
1.55537	0.08833	1.36518	1.99042	4.6488
1.55586	0.09024	1.3948	2.0336	4.74965
1.55636	0.09226	1.42599	2.07908	4.85587
1.55686	0.09416	1.45539	2.12194	4.95597
1.55735	0.09621	1.48704	2.1681	5.06378
1.55785	0.0983	1.51935	2.2152	5.17378
1.55837	0.1003	1.55028	2.26029	5.2791
1.55886	0.10243	1.58313	2.30819	5.39098
1.55936	0.10451	1.61528	2.35507	5.50046
1.55986	0.10656	1.64699	2.4013	5.60843
1.56036	0.10886	1.68252	2.45311	5.72944
1.56085	0.11108	1.7168	2.50308	5.84616
1.56136	0.11329	1.75105	2.55302	5.96279
1.56184	0.11561	1.78683	2.60518	6.08462
1.56234	0.11795	1.82307	2.65803	6.20804
1.56285	0.12034	1.85996	2.71181	6.33365
1.56335	0.12274	1.89705	2.76588	6.45995
1.56384	0.12522	1.9354	2.82181	6.59056
1.56433	0.12764	1.97278	2.8763	6.71783
1.56482	0.13018	2.01208	2.93361	6.85168
1.56532	0.13268	2.05076	2.98999	6.98337
1.56581	0.13525	2.09034	3.04771	7.11817
1.56632	0.13784	2.13041	3.10613	7.25462
1.56682	0.14039	2.16983	3.1636	7.38884
1.56731	0.14322	2.21358	3.22738	7.53781
1.56781	0.14592	2.25527	3.28816	7.67977
1.5683	0.14862	2.29701	3.34903	7.82193
1.5688	0.1514	2.34004	3.41176	7.96844
1.5693	0.15414	2.38243	3.47357	8.1128
1.56979	0.157	2.4266	3.53796	8.2632
1.57029	0.15995	2.47224	3.60451	8.41862
1.57078	0.16275	2.5155	3.66758	8.56593
1.57128	0.16581	2.56268	3.73637	8.72661
1.57178	0.16883	2.60943	3.80453	8.8858
1.57228	0.17178	2.65507	3.87108	9.04121
1.57278	0.17478	2.70136	3.93857	9.19885
1.57327	0.17789	2.74945	4.00868	9.3626
1.5738	0.18093	2.79638	4.07711	9.52243
1.57431	0.18411	2.84563	4.14891	9.69012
1.57482	0.18724	2.89393	4.21933	9.8546
1.5753	0.19042	2.94316	4.29111	10.02224
1.57581	0.19385	2.99607	4.36825	10.2024
1.5763	0.19708	3.04608	4.44116	10.37269
1.57679	0.20048	3.09858	4.51771	10.55148
1.57728	0.20397	3.15257	4.59643	10.73534
1.57777	0.2074	3.20562	4.67377	10.91598
1.57827	0.21085	3.25892	4.75149	11.09748
1.57877	0.21442	3.31411	4.83195	11.28541
1.57927	0.21768	3.36442	4.9053	11.45673
1.57977	0.22125	3.41962	4.98579	11.64472
1.58026	0.22479	3.47431	5.06552	11.83094
1.58076	0.22842	3.53043	5.14735	12.02205
1.58125	0.23203	3.58632	5.22883	12.21237
1.58174	0.23569	3.64282	5.31121	12.40476
1.58224	0.23932	3.69896	5.39306	12.59593
1.58274	0.24305	3.75655	5.47702	12.79202
1.58324	0.24684	3.81511	5.56241	12.99146
1.58374	0.25063	3.87374	5.64789	13.19112
1.58423	0.25447	3.93303	5.73433	13.393
1.58473	0.2582	3.99077	5.81852	13.58963
1.58523	0.26209	4.05092	5.90622	13.79446
1.58573	0.266	4.11136	5.99433	14.00025
1.58622	0.27002	4.17348	6.0849	14.21179
1.58671	0.2741	4.23654	6.17684	14.42653
1.58725	0.27808	4.29801	6.26647	14.63585